J Voltage (V),Measured Voltage (V)
0.0,+126.05E-3
0.1,+126.08E-3
0.2,+126.09E-3
0.3,+126.10E-3
0.4,+126.09E-3
0.5,+125.98E-3
0.6,+126.02E-3
0.7,+125.99E-3
0.8,+126.00E-3
0.9,+126.49E-3
1.0,+3.985E+0
1.1,+3.983E+0
1.2,+3.983E+0
1.3,+3.984E+0
1.4,+3.983E+0
1.5,+3.983E+0
1.6,+3.984E+0
1.7,+3.984E+0
1.8,+3.984E+0
1.9,+3.984E+0
2.0,+3.985E+0
2.1,+3.985E+0
2.2,+3.984E+0
2.3,+3.984E+0
2.4,+3.984E+0
2.5,+3.984E+0
